2-THETA,INTENSITY
2,5551
2.05,9497
2.1,9075
2.15,8330
2.2,10928
2.25,6749
2.3,9896
2.35,8206
2.4,7579
2.45,9270
2.5,8067
2.55,8555
2.6,6659
2.65,6677
2.7,7184
2.75,6587
2.8,6705
2.85,6483
2.9,6170
2.95,5973
3,5547
3.05,5677
3.1,5400
3.15,4918
3.2,5745
3.25,4505
3.3,4755
3.35,4401
3.4,4325
3.45,4272
3.5,3809
3.55,3968
3.6,3996
3.65,3617
3.7,3782
3.75,3075
3.8,3477
3.85,3158
3.9,3228
3.95,3447
4,2841
4.05,3169
4.1,2623
4.15,2792
4.2,3024
4.25,2514
4.3,2633
4.35,2506
4.4,2496
4.45,2458
4.5,2230
4.55,2207
4.6,2284
4.65,2127
4.7,2181
4.75,1924
4.8,1952
4.85,2075
4.9,1966
4.95,1961
5,1831
5.05,1841
5.1,1786
5.15,1853
5.2,1823
5.25,1852
5.3,1698
5.35,1690
5.4,1600
5.45,1633
5.5,1597
5.55,1535
5.6,1475
5.65,1490
5.7,1505
5.75,1476
5.8,1416
5.85,1424
5.9,1418
5.95,1373
6,1286
6.05,1336
6.1,1283
6.15,1261
6.2,1303
6.25,1246
6.3,1243
6.35,1123
6.4,1192
6.45,1178
6.5,1147
6.55,1242
6.6,1180
6.65,1152
6.7,1151
6.75,1091
6.8,1115
6.85,1137
6.9,1093
6.95,1062
7,1171
7.05,1113
7.1,1091
7.15,1074
7.2,1077
7.25,1028
7.3,1095
7.35,1089
7.4,985
7.45,1011
7.5,1002
7.55,1087
7.6,977
7.65,1044
7.7,989
7.75,946
7.8,1033
7.85,1012
7.9,985
7.95,947
8,975
8.05,973
8.1,939
8.15,946
8.2,961
8.25,973
8.3,926
8.35,968
8.4,943
8.45,927
8.5,967
8.55,933
8.6,980
8.65,976
8.7,921
8.75,925
8.8,941
8.85,987
8.9,992
8.95,994
9,1010
9.05,919
9.1,971
9.15,962
9.2,977
9.25,966
9.3,951
9.35,931
9.4,974
9.45,928
9.5,950
9.55,993
9.6,1013
9.65,980
9.7,1003
9.75,1016
9.8,1051
9.85,1068
9.9,1077
9.95,1060
10,1082
10.05,1098
10.1,1102
10.15,1113
10.2,1093
10.25,1089
10.3,1089
10.35,983
10.4,1028
10.45,1006
10.5,1012
10.55,957
10.6,952
10.65,883
10.7,834
10.75,842
10.8,786
10.85,792
10.9,777
10.95,721
11,695
11.05,695
11.1,698
11.15,646
11.2,615
11.25,561
11.3,541
11.35,544
11.4,532
11.45,528
11.5,500
11.55,500
11.6,509
11.65,489
11.7,455
11.75,466
11.8,495
11.85,457
11.9,475
11.95,438
12,466
12.05,471
12.1,475
12.15,463
12.2,440
12.25,439
12.3,428
12.35,414
12.4,454
12.45,460
12.5,396
12.55,419
12.6,451
12.65,450
12.7,440
12.75,437
12.8,425
12.85,416
12.9,431
12.95,424
13,440
13.05,427
13.1,397
13.15,427
13.2,451
13.25,406
13.3,398
13.35,407
13.4,394
13.45,418
13.5,415
13.55,411
13.6,424
13.65,438
13.7,444
13.75,397
13.8,417
13.85,394
13.9,441
13.95,398
14,422
14.05,417
14.1,420
14.15,406
14.2,414
14.25,417
14.3,407
14.35,420
14.4,440
14.45,418
14.5,440
14.55,411
14.6,422
14.65,442
14.7,434
14.75,414
14.8,417
14.85,443
14.9,428
14.95,452
15,406
15.05,423
15.1,421
15.15,412
15.2,382
15.25,421
15.3,430
15.35,396
15.4,431
15.45,391
15.5,417
15.55,403
15.6,442
15.65,407
15.7,397
15.75,451
15.8,466
15.85,532
15.9,521
15.95,599
16,625
16.05,553
16.1,575
16.15,560
16.2,506
16.25,511
16.3,485
16.35,431
16.4,480
16.45,461
16.5,429
16.55,421
16.6,422
16.65,427
16.7,411
16.75,463
16.8,454
16.85,445
16.9,492
16.95,490
17,535
17.05,533
17.1,563
17.15,540
17.2,536
17.25,506
17.3,514
17.35,478
17.4,456
17.45,463
17.5,452
17.55,506
17.6,504
17.65,502
17.7,503
17.75,490
17.8,504
17.85,484
17.9,476
17.95,473
18,481
18.05,486
18.1,508
18.15,505
18.2,544
18.25,511
18.3,506
18.35,526
18.4,496
18.45,515
18.5,519
18.55,547
18.6,518
18.65,534
18.7,521
18.75,532
18.8,520
18.85,514
18.9,537
18.95,534
19,521
19.05,510
19.1,490
19.15,551
19.2,509
19.25,507
19.3,522
19.35,529
19.4,521
19.45,488
19.5,529
19.55,501
19.6,515
19.65,511
19.7,522
19.75,481
19.8,517
19.85,494
19.9,509
19.95,531
20,529
20.05,480
20.1,527
20.15,506
20.2,520
20.25,530
20.3,500
20.35,494
20.4,525
20.45,551
20.5,510
20.55,530
20.6,551
20.65,529
20.7,535
20.75,535
20.8,543
20.85,529
20.9,530
20.95,534
21,535
21.05,510
21.1,519
21.15,552
21.2,527
21.25,545
21.3,535
21.35,548
21.4,522
21.45,539
21.5,549
21.55,538
21.6,512
21.65,502
21.7,526
21.75,571
21.8,534
21.85,502
21.9,559
21.95,585
22,588
22.05,610
22.1,602
22.15,603
22.2,645
22.25,616
22.3,652
22.35,644
22.4,686
22.45,705
22.5,754
22.55,784
22.6,876
22.65,908
22.7,949
22.75,950
22.8,1011
22.85,1024
22.9,1025
22.95,1058
23,1041
23.05,972
23.1,980
23.15,948
23.2,925
23.25,928
23.3,895
23.35,874
23.4,881
23.45,871
23.5,867
23.55,881
23.6,820
23.65,855
23.7,812
23.75,895
23.8,828
23.85,827
23.9,830
23.95,839
24,799
24.05,837
24.1,811
24.15,824
24.2,837
24.25,835
24.3,843
24.35,829
24.4,821
24.45,821
24.5,838
24.55,863
24.6,827
24.65,805
24.7,795
24.75,790
24.8,777
24.85,784
24.9,806
24.95,787
25,802
25.05,747
25.1,765
25.15,731
25.2,786
25.25,777
25.3,835
25.35,855
25.4,995
25.45,1177
25.5,1398
25.55,1642
25.6,1772
25.65,1796
25.7,1815
25.75,1568
25.8,1352
25.85,1048
25.9,884
25.95,773
26,768
26.05,716
26.1,716
26.15,680
26.2,748
26.25,722
26.3,711
26.35,709
26.4,734
26.45,733
26.5,820
26.55,833
26.6,882
26.65,888
26.7,923
26.75,886
26.8,887
26.85,774
26.9,788
26.95,719
27,727
27.05,733
27.1,760
27.15,726
27.2,731
27.25,742
27.3,740
27.35,826
27.4,896
27.45,1004
27.5,1193
27.55,1343
27.6,1368
27.65,1508
27.7,1418
27.75,1326
27.8,1205
27.85,1030
27.9,944
27.95,844
28,843
28.05,802
28.1,777
28.15,815
28.2,802
28.25,884
28.3,921
28.35,984
28.4,1063
28.45,1122
28.5,1175
28.55,1115
28.6,1105
28.65,1027
28.7,920
28.75,841
28.8,839
28.85,782
28.9,768
28.95,769
29,763
29.05,741
29.1,739
29.15,784
29.2,798
29.25,824
29.3,867
29.35,892
29.4,946
29.45,1037
29.5,1176
29.55,1328
29.6,1413
29.65,1517
29.7,1535
29.75,1532
29.8,1441
29.85,1391
29.9,1307
29.95,1202
30,1080
30.05,1014
30.1,950
30.15,893
30.2,864
30.25,866
30.3,860
30.35,796
30.4,763
30.45,774
30.5,788
30.55,735
30.6,764
30.65,771
30.7,826
30.75,894
30.8,941
30.85,991
30.9,1010
30.95,1021
31,1032
31.05,1044
31.1,1033
31.15,978
31.2,1028
31.25,952
31.3,958
31.35,899
31.4,881
31.45,879
31.5,862
31.55,816
31.6,783
31.65,792
31.7,809
31.75,843
31.8,815
31.85,841
31.9,859
31.95,931
32,962
32.05,1051
32.1,1210
32.15,1414
32.2,1648
32.25,1996
32.3,2319
32.35,2622
32.4,2807
32.45,2871
32.5,2865
32.55,2717
32.6,2682
32.65,2546
32.7,2354
32.75,2195
32.8,1893
32.85,1660
32.9,1417
32.95,1261
33,1157
33.05,1074
33.1,1126
33.15,1117
33.2,1130
33.25,1074
33.3,1039
33.35,886
33.4,828
33.45,775
33.5,695
33.55,676
33.6,679
33.65,643
33.7,653
33.75,647
33.8,629
33.85,676
33.9,619
33.95,605
34,597
34.05,609
34.1,631
34.15,600
34.2,641
34.25,637
34.3,640
34.35,690
34.4,787
34.45,833
34.5,894
34.55,923
34.6,967
34.65,1007
34.7,1000
34.75,937
34.8,899
34.85,865
34.9,805
34.95,802
35,747
35.05,736
35.1,745
35.15,755
35.2,778
35.25,830
35.3,917
35.35,943
35.4,980
35.45,1011
35.5,1002
35.55,1001
35.6,950
35.65,928
35.7,946
35.75,912
35.8,904
35.85,895
35.9,896
35.95,871
36,867
36.05,883
36.1,860
36.15,851
36.2,859
36.25,823
36.3,804
36.35,781
36.4,745
36.45,751
36.5,778
36.55,843
36.6,871
36.65,941
36.7,975
36.75,1033
36.8,986
36.85,947
36.9,915
36.95,868
37,793
37.05,751
37.1,752
37.15,698
37.2,698
37.25,742
37.3,713
37.35,686
37.4,704
37.45,677
37.5,697
37.55,683
37.6,688
37.65,643
37.7,611
37.75,593
37.8,611
37.85,610
37.9,614
37.95,604
38,637
38.05,616
38.1,639
38.15,650
38.2,660
38.25,658
38.3,681
38.35,694
38.4,691
38.45,705
38.5,697
38.55,680
38.6,706
38.65,719
38.7,686
38.75,688
38.8,651
38.85,661
38.9,637
38.95,681
39,628
39.05,640
39.1,641
39.15,617
39.2,612
39.25,646
39.3,633
39.35,681
39.4,749
39.45,720
39.5,717
39.55,708
39.6,660
39.65,636
39.7,617
39.75,631
39.8,637
39.85,613
39.9,631
39.95,663
40,652
40.05,626
40.1,687
40.15,650
40.2,684
40.25,688
40.3,717
40.35,729
40.4,751
40.45,780
40.5,739
40.55,784
40.6,782
40.65,783
40.7,809
40.75,826
40.8,816
40.85,809
40.9,844
40.95,843
41,827
41.05,858
41.1,881
41.15,845
41.2,869
41.25,935
41.3,944
41.35,987
41.4,1083
41.45,1146
41.5,1263
41.55,1261
41.6,1286
41.65,1315
41.7,1325
41.75,1270
41.8,1235
41.85,1201
41.9,1118
41.95,1053
42,980
42.05,883
42.1,907
42.15,881
42.2,832
42.25,785
42.3,780
42.35,781
42.4,776
42.45,744
42.5,758
42.55,738
42.6,748
42.65,727
42.7,715
42.75,781
42.8,759
42.85,771
42.9,770
42.95,763
43,732
43.05,690
43.1,704
43.15,718
43.2,680
43.25,675
43.3,660
43.35,684
43.4,708
43.45,681
43.5,673
43.55,701
43.6,723
43.65,671
43.7,691
43.75,649
43.8,669
43.85,654
43.9,634
43.95,608
44,622
44.05,641
44.1,676
44.15,652
44.2,651
44.25,670
44.3,626
44.35,658
44.4,644
44.45,618
44.5,574
44.55,566
44.6,591
44.65,606
44.7,586
44.75,604
44.8,623
44.85,629
44.9,644
44.95,577
45,610
45.05,594
45.1,633
45.15,638
45.2,640
45.25,679
45.3,680
45.35,676
45.4,665
45.45,669
45.5,666
45.55,642
45.6,662
45.65,621
45.7,604
45.75,672
45.8,638
45.85,654
45.9,633
45.95,632
46,677
46.05,652
46.1,629
46.15,650
46.2,643
46.25,622
46.3,593
46.35,638
46.4,611
46.45,624
46.5,605
46.55,604
46.6,611
46.65,573
46.7,581
46.75,573
46.8,612
46.85,606
46.9,588
46.95,570
47,594
47.05,580
47.1,600
47.15,584
47.2,597
47.25,619
47.3,646
47.35,622
47.4,626
47.45,669
47.5,689
47.55,705
47.6,692
47.65,716
47.7,718
47.75,704
47.8,742
47.85,741
47.9,722
47.95,720
48,688
48.05,700
48.1,653
48.15,676
48.2,657
48.25,656
48.3,667
48.35,657
48.4,658
48.45,622
48.5,640
48.55,662
48.6,640
48.65,606
48.7,605
48.75,587
48.8,600
48.85,602
48.9,628
48.95,600
49,604
49.05,590
49.1,623
49.15,612
49.2,586
49.25,596
49.3,613
49.35,648
49.4,662
49.45,692
49.5,701
49.55,736
49.6,691
49.65,694
49.7,673
49.75,679
49.8,700
49.85,700
49.9,722
49.95,739
50,716
50.05,656
50.1,709
50.15,693
50.2,629
50.25,658
50.3,644
50.35,683
50.4,680
50.45,636
50.5,663
50.55,660
50.6,660
50.65,638
50.7,594
50.75,583
50.8,610
50.85,598
50.9,598
50.95,566
51,544
51.05,565
51.1,525
51.15,560
51.2,545
51.25,572
51.3,565
51.35,533
51.4,545
51.45,547
51.5,559
51.55,549
51.6,544
51.65,517
51.7,540
51.75,530
51.8,551
51.85,555
51.9,518
51.95,520
52,499
