2-THETA,INTENSITY
2,5471
2.05,8211
2.1,7714
2.15,6964
2.2,8787
2.25,5700
2.3,8053
2.35,5281
2.4,7296
2.45,7129
2.5,5533
2.55,6858
2.6,5106
2.65,5550
2.7,5731
2.75,4988
2.8,4854
2.85,5078
2.9,4195
2.95,4323
3,4035
3.05,4421
3.1,3919
3.15,3912
3.2,4111
3.25,3358
3.3,3661
3.35,3463
3.4,3207
3.45,3557
3.5,2630
3.55,3097
3.6,2645
3.65,2919
3.7,2680
3.75,2397
3.8,2516
3.85,2312
3.9,2374
3.95,2573
4,2063
4.05,2328
4.1,2014
4.15,2048
4.2,2073
4.25,1856
4.3,1794
4.35,1891
4.4,1913
4.45,1791
4.5,1760
4.55,1754
4.6,1709
4.65,1653
4.7,1735
4.75,1559
4.8,1495
4.85,1532
4.9,1389
4.95,1523
5,1498
5.05,1424
5.1,1405
5.15,1440
5.2,1336
5.25,1437
5.3,1413
5.35,1373
5.4,1291
5.45,1293
5.5,1246
5.55,1268
5.6,1240
5.65,1212
5.7,1235
5.75,1176
5.8,1257
5.85,1057
5.9,1123
5.95,1130
6,1127
6.05,1137
6.1,1078
6.15,1073
6.2,1116
6.25,1154
6.3,1059
6.35,1065
6.4,995
6.45,978
6.5,1020
6.55,1047
6.6,1069
6.65,1079
6.7,986
6.75,1019
6.8,981
6.85,1001
6.9,1033
6.95,935
7,945
7.05,918
7.1,983
7.15,951
7.2,930
7.25,964
7.3,903
7.35,895
7.4,922
7.45,939
7.5,884
7.55,966
7.6,967
7.65,963
7.7,876
7.75,950
7.8,895
7.85,972
7.9,908
7.95,933
8,965
8.05,891
8.1,866
8.15,887
8.2,923
8.25,957
8.3,934
8.35,924
8.4,844
8.45,893
8.5,897
8.55,855
8.6,894
8.65,933
8.7,931
8.75,864
8.8,909
8.85,844
8.9,907
8.95,945
9,886
9.05,928
9.1,888
9.15,913
9.2,895
9.25,852
9.3,821
9.35,894
9.4,874
9.45,910
9.5,883
9.55,934
9.6,868
9.65,954
9.7,939
9.75,945
9.8,980
9.85,900
9.9,897
9.95,926
10,962
10.05,913
10.1,865
10.15,978
10.2,904
10.25,958
10.3,892
10.35,891
10.4,897
10.45,832
10.5,845
10.55,873
10.6,836
10.65,793
10.7,731
10.75,731
10.8,728
10.85,748
10.9,736
10.95,713
11,762
11.05,754
11.1,823
11.15,786
11.2,787
11.25,667
11.3,624
11.35,592
11.4,522
11.45,544
11.5,526
11.55,483
11.6,505
11.65,482
11.7,489
11.75,461
11.8,458
11.85,446
11.9,506
11.95,417
12,455
12.05,460
12.1,468
12.15,408
12.2,427
12.25,412
12.3,464
12.35,440
12.4,443
12.45,446
12.5,419
12.55,417
12.6,460
12.65,411
12.7,430
12.75,430
12.8,424
12.85,404
12.9,430
12.95,406
13,460
13.05,417
13.1,399
13.15,419
13.2,423
13.25,425
13.3,421
13.35,416
13.4,396
13.45,413
13.5,419
13.55,430
13.6,426
13.65,426
13.7,416
13.75,428
13.8,401
13.85,415
13.9,419
13.95,409
14,447
14.05,410
14.1,417
14.15,430
14.2,412
14.25,415
14.3,389
14.35,429
14.4,440
14.45,440
14.5,404
14.55,442
14.6,422
14.65,421
14.7,380
14.75,391
14.8,436
14.85,408
14.9,446
14.95,395
15,413
15.05,398
15.1,431
15.15,413
15.2,419
15.25,407
15.3,434
15.35,430
15.4,386
15.45,401
15.5,403
15.55,406
15.6,454
15.65,413
15.7,423
15.75,433
15.8,475
15.85,540
15.9,522
15.95,577
16,586
16.05,604
16.1,589
16.15,557
16.2,526
16.25,499
16.3,481
16.35,448
16.4,461
16.45,415
16.5,462
16.55,420
16.6,448
16.65,459
16.7,444
16.75,469
16.8,434
16.85,471
16.9,545
16.95,584
17,598
17.05,655
17.1,659
17.15,652
17.2,611
17.25,558
17.3,535
17.35,485
17.4,480
17.45,505
17.5,496
17.55,469
17.6,487
17.65,511
17.7,533
17.75,481
17.8,492
17.85,485
17.9,498
17.95,473
18,496
18.05,516
18.1,512
18.15,527
18.2,556
18.25,542
18.3,536
18.35,555
18.4,562
18.45,539
18.5,507
18.55,555
18.6,550
18.65,548
18.7,536
18.75,553
18.8,568
18.85,563
18.9,566
18.95,573
19,534
19.05,528
19.1,541
19.15,549
19.2,558
19.25,549
19.3,515
19.35,556
19.4,540
19.45,530
19.5,539
19.55,530
19.6,525
19.65,532
19.7,527
19.75,536
19.8,524
19.85,533
19.9,528
19.95,538
20,557
20.05,526
20.1,551
20.15,492
20.2,547
20.25,522
20.3,558
20.35,524
20.4,541
20.45,558
20.5,571
20.55,552
20.6,567
20.65,558
20.7,572
20.75,562
20.8,561
20.85,563
20.9,565
20.95,564
21,529
21.05,531
21.1,554
21.15,539
21.2,544
21.25,546
21.3,563
21.35,550
21.4,565
21.45,583
21.5,547
21.55,519
21.6,520
21.65,531
21.7,516
21.75,543
21.8,526
21.85,543
21.9,543
21.95,604
22,623
22.05,608
22.1,611
22.15,617
22.2,638
22.25,642
22.3,653
22.35,626
22.4,691
22.45,734
22.5,738
22.55,720
22.6,819
22.65,849
22.7,895
22.75,921
22.8,921
22.85,929
22.9,972
22.95,955
23,984
23.05,967
23.1,964
23.15,907
23.2,922
23.25,910
23.3,929
23.35,857
23.4,897
23.45,824
23.5,834
23.55,783
23.6,811
23.65,833
23.7,824
23.75,779
23.8,812
23.85,782
23.9,795
23.95,823
24,824
24.05,807
24.1,828
24.15,818
24.2,814
24.25,853
24.3,798
24.35,857
24.4,830
24.45,838
24.5,801
24.55,811
24.6,781
24.65,768
24.7,783
24.75,788
24.8,798
24.85,792
24.9,781
24.95,793
25,747
25.05,743
25.1,770
25.15,804
25.2,792
25.25,822
25.3,826
25.35,864
25.4,1032
25.45,1155
25.5,1442
25.55,1581
25.6,1724
25.65,1813
25.7,1801
25.75,1554
25.8,1279
25.85,999
25.9,851
25.95,739
26,718
26.05,723
26.1,687
26.15,713
26.2,710
26.25,718
26.3,701
26.35,738
26.4,758
26.45,806
26.5,810
26.55,842
26.6,854
26.65,886
26.7,883
26.75,873
26.8,792
26.85,739
26.9,749
26.95,678
27,714
27.05,670
27.1,693
27.15,711
27.2,724
27.25,741
27.3,747
27.35,820
27.4,851
27.45,993
27.5,1115
27.55,1276
27.6,1378
27.65,1416
27.7,1377
27.75,1234
27.8,1103
27.85,988
27.9,853
27.95,808
28,775
28.05,726
28.1,713
28.15,707
28.2,740
28.25,796
28.3,870
28.35,911
28.4,954
28.45,1004
28.5,1084
28.55,1041
28.6,1040
28.65,980
28.7,926
28.75,839
28.8,785
28.85,787
28.9,754
28.95,746
29,770
29.05,738
29.1,774
29.15,775
29.2,773
29.25,778
29.3,862
29.35,846
29.4,895
29.45,931
29.5,971
29.55,998
29.6,1028
29.65,1074
29.7,1076
29.75,1036
29.8,1145
29.85,1080
29.9,1051
29.95,1001
30,943
30.05,899
30.1,852
30.15,813
30.2,800
30.25,763
30.3,758
30.35,725
30.4,730
30.45,736
30.5,703
30.55,719
30.6,701
30.65,756
30.7,804
30.75,834
30.8,878
30.85,957
30.9,1025
30.95,988
31,1007
31.05,990
31.1,984
31.15,989
31.2,979
31.25,943
31.3,872
31.35,851
31.4,817
31.45,837
31.5,789
31.55,789
31.6,750
31.65,775
31.7,766
31.75,810
31.8,780
31.85,833
31.9,833
31.95,906
32,946
32.05,1091
32.1,1253
32.15,1417
32.2,1686
32.25,1993
32.3,2226
32.35,2529
32.4,2755
32.45,2813
32.5,2807
32.55,2767
32.6,2633
32.65,2469
32.7,2355
32.75,1972
32.8,1865
32.85,1668
32.9,1433
32.95,1212
33,1082
33.05,1039
33.1,1095
33.15,1070
33.2,1093
33.25,1068
33.3,988
33.35,914
33.4,803
33.45,720
33.5,698
33.55,662
33.6,667
33.65,639
33.7,660
33.75,608
33.8,645
33.85,611
33.9,649
33.95,644
34,637
34.05,634
34.1,627
34.15,638
34.2,601
34.25,650
34.3,685
34.35,751
34.4,809
34.45,892
34.5,994
34.55,1063
34.6,1164
34.65,1163
34.7,1142
34.75,1087
34.8,1038
34.85,958
34.9,919
34.95,844
35,780
35.05,748
35.1,743
35.15,731
35.2,815
35.25,846
35.3,924
35.35,968
35.4,1012
35.45,1000
35.5,1031
35.55,999
35.6,929
35.65,954
35.7,931
35.75,899
35.8,929
35.85,884
35.9,875
35.95,910
36,896
36.05,902
36.1,871
36.15,839
36.2,829
36.25,780
36.3,741
36.35,676
36.4,683
36.45,649
36.5,663
36.55,693
36.6,737
36.65,775
36.7,839
36.75,806
36.8,889
36.85,831
36.9,892
36.95,873
37,797
37.05,814
37.1,842
37.15,821
37.2,909
37.25,897
37.3,908
37.35,902
37.4,846
37.45,893
37.5,870
37.55,848
37.6,760
37.65,690
37.7,603
37.75,622
37.8,612
37.85,590
37.9,587
37.95,570
38,564
38.05,591
38.1,592
38.15,592
38.2,594
38.25,629
38.3,633
38.35,604
38.4,621
38.45,610
38.5,610
38.55,644
38.6,624
38.65,578
38.7,608
38.75,581
38.8,549
38.85,571
38.9,599
38.95,561
39,573
39.05,557
39.1,570
39.15,566
39.2,575
39.25,592
39.3,626
39.35,656
39.4,641
39.45,648
39.5,659
39.55,677
39.6,625
39.65,614
39.7,593
39.75,578
39.8,596
39.85,580
39.9,598
39.95,617
40,626
40.05,608
40.1,654
40.15,651
40.2,695
40.25,698
40.3,704
40.35,715
40.4,726
40.45,752
40.5,761
40.55,753
40.6,796
40.65,817
40.7,817
40.75,846
40.8,878
40.85,896
40.9,887
40.95,877
41,843
41.05,852
41.1,838
41.15,839
41.2,949
41.25,937
41.3,967
41.35,1011
41.4,1038
41.45,1161
41.5,1189
41.55,1227
41.6,1302
41.65,1343
41.7,1306
41.75,1282
41.8,1224
41.85,1133
41.9,1085
41.95,1065
42,946
42.05,929
42.1,931
42.15,851
42.2,882
42.25,863
42.3,844
42.35,867
42.4,871
42.45,843
42.5,811
42.55,813
42.6,799
42.65,796
42.7,771
42.75,753
42.8,755
42.85,750
42.9,735
42.95,759
43,733
43.05,758
43.1,719
43.15,711
43.2,676
43.25,671
43.3,655
43.35,700
43.4,670
43.45,628
43.5,681
43.55,682
43.6,695
43.65,696
43.7,698
43.75,685
43.8,685
43.85,631
43.9,616
43.95,613
44,640
44.05,669
44.1,657
44.15,652
44.2,682
44.25,656
44.3,658
44.35,672
44.4,636
44.45,601
44.5,598
44.55,627
44.6,585
44.65,622
44.7,636
44.75,653
44.8,650
44.85,661
44.9,622
44.95,612
45,632
45.05,610
45.1,591
45.15,599
45.2,635
45.25,630
45.3,609
45.35,635
45.4,621
45.45,639
45.5,631
45.55,648
45.6,620
45.65,613
45.7,615
45.75,647
45.8,655
45.85,654
45.9,635
45.95,675
46,713
46.05,692
46.1,721
46.15,689
46.2,688
46.25,692
46.3,659
46.35,687
46.4,641
46.45,658
46.5,656
46.55,624
46.6,652
46.65,615
46.7,602
46.75,624
46.8,619
46.85,590
46.9,586
46.95,578
47,574
47.05,573
47.1,582
47.15,603
47.2,591
47.25,590
47.3,618
47.35,627
47.4,624
47.45,669
47.5,669
47.55,674
47.6,658
47.65,694
47.7,705
47.75,678
47.8,628
47.85,705
47.9,656
47.95,672
48,639
48.05,649
48.1,621
48.15,649
48.2,628
48.25,616
48.3,622
48.35,624
48.4,614
48.45,620
48.5,612
48.55,659
48.6,634
48.65,597
48.7,613
48.75,642
48.8,603
48.85,654
48.9,630
48.95,645
49,644
49.05,625
49.1,621
49.15,650
49.2,617
49.25,661
49.3,666
49.35,689
49.4,740
49.45,786
49.5,796
49.55,833
49.6,816
49.65,804
49.7,779
49.75,761
49.8,746
49.85,778
49.9,762
49.95,755
50,758
50.05,739
50.1,766
50.15,716
50.2,713
50.25,723
50.3,698
50.35,719
50.4,669
50.45,681
50.5,693
50.55,670
50.6,622
50.65,633
50.7,615
50.75,578
50.8,593
50.85,588
50.9,609
50.95,559
51,573
51.05,581
51.1,586
51.15,575
51.2,558
51.25,558
51.3,554
51.35,558
51.4,576
51.45,604
51.5,571
51.55,576
51.6,563
51.65,570
51.7,594
51.75,565
51.8,587
51.85,583
51.9,541
51.95,556
52,558
